TITLE	
DATA TYPE	
ORIGIN	JASCO
OWNER	
DATE	23/02/09
TIME	12:28:50
SPECTROMETER/DATA SYSTEM	JASCO Corp., V-560, Rev. 1.00
RESOLUTION	
DELTAX	-1
XUNITS	NANOMETERS
YUNITS	ABSORBANCE
FIRSTX	900.0000
LASTX	250.0000
NPOINTS	651
FIRSTY	-0.00330
MAXY	0.49912
MINY	-0.00330
XYDATA
900.0000	-0.0033
899.0000	-0.00236
898.0000	-0.00226
897.0000	-4.9E-04
896.0000	-8.2E-04
895.0000	-6.2E-04
894.0000	-1.7E-04
893.0000	2.6E-04
892.0000	0.00178
891.0000	6.4E-04
890.0000	-8.00002E-05
889.0000	0.00143
888.0000	0.00101
887.0000	0.0011
886.0000	3.3E-04
885.0000	6E-04
884.0000	4.5E-04
883.0000	4E-04
882.0000	-2.8E-04
881.0000	-8.1E-04
880.0000	-0.00103
879.0000	-4.6E-04
878.0000	-4.2E-04
877.0000	6.9E-04
876.0000	7.8E-04
875.0000	0.00176
874.0000	0.00147
873.0000	0.00171
872.0000	0.00146
871.0000	0.00106
870.0000	5E-04
869.0000	-1.3E-04
868.0000	3.2E-04
867.0000	1.9E-04
866.0000	1.1E-04
865.0000	3.1E-04
864.0000	2.4E-04
863.0000	5.6E-04
862.0000	3.1E-04
861.0000	3.3E-04
860.0000	8.7E-04
859.0000	8.1E-04
858.0000	0.00107
857.0000	0.00142
856.0000	0.00113
855.0000	9.4E-04
854.0000	0.00105
853.0000	9.8E-04
852.0000	7.1E-04
851.0000	7.1E-04
850.0000	8.4E-04
849.0000	0.00107
848.0000	0.0012
847.0000	0.00118
846.0000	0.00118
845.0000	0.00133
844.0000	0.00117
843.0000	0.00137
842.0000	0.00109
841.0000	0.00114
840.0000	0.00127
839.0000	0.00149
838.0000	0.00149
837.0000	0.0013
836.0000	0.00144
835.0000	0.00143
834.0000	0.0016
833.0000	0.0013
832.0000	0.00142
831.0000	0.00155
830.0000	0.00171
829.0000	0.00163
828.0000	0.00155
827.0000	0.00166
826.0000	0.00164
825.0000	0.00167
824.0000	0.00165
823.0000	0.00166
822.0000	0.00188
821.0000	0.00168
820.0000	0.00167
819.0000	0.00167
818.0000	0.00186
817.0000	0.00194
816.0000	0.00175
815.0000	0.00182
814.0000	0.00198
813.0000	0.00203
812.0000	0.00198
811.0000	0.00208
810.0000	0.00226
809.0000	0.00245
808.0000	0.00231
807.0000	0.0021
806.0000	0.00214
805.0000	0.0021
804.0000	0.00196
803.0000	0.00189
802.0000	0.00192
801.0000	0.002
800.0000	0.0022
799.0000	0.00218
798.0000	0.00225
797.0000	0.00234
796.0000	0.00242
795.0000	0.00245
794.0000	0.00259
793.0000	0.00257
792.0000	0.00261
791.0000	0.00268
790.0000	0.00252
789.0000	0.00276
788.0000	0.00266
787.0000	0.00292
786.0000	0.00307
785.0000	0.00318
784.0000	0.00332
783.0000	0.00344
782.0000	0.00339
781.0000	0.0034
780.0000	0.00339
779.0000	0.00335
778.0000	0.00358
777.0000	0.00355
776.0000	0.00353
775.0000	0.00362
774.0000	0.00357
773.0000	0.00379
772.0000	0.00389
771.0000	0.00389
770.0000	0.00408
769.0000	0.00426
768.0000	0.00433
767.0000	0.00437
766.0000	0.00447
765.0000	0.00457
764.0000	0.0045
763.0000	0.00451
762.0000	0.00455
761.0000	0.00465
760.0000	0.00479
759.0000	0.00482
758.0000	0.00488
757.0000	0.00501
756.0000	0.00514
755.0000	0.00518
754.0000	0.00522
753.0000	0.0052
752.0000	0.00522
751.0000	0.00541
750.0000	0.00551
749.0000	0.00569
748.0000	0.00577
747.0000	0.00579
746.0000	0.00572
745.0000	0.00572
744.0000	0.00557
743.0000	0.00547
742.0000	0.00558
741.0000	0.00562
740.0000	0.00618
739.0000	0.00621
738.0000	0.00619
737.0000	0.00632
736.0000	0.00646
735.0000	0.00643
734.0000	0.00655
733.0000	0.00658
732.0000	0.00689
731.0000	0.00698
730.0000	0.00709
729.0000	0.00719
728.0000	0.00728
727.0000	0.00752
726.0000	0.00763
725.0000	0.00768
724.0000	0.00783
723.0000	0.00795
722.0000	0.00808
721.0000	0.00813
720.0000	0.00823
719.0000	0.00817
718.0000	0.00828
717.0000	0.00831
716.0000	0.0083
715.0000	0.00843
714.0000	0.00855
713.0000	0.00864
712.0000	0.00876
711.0000	0.00885
710.0000	0.00899
709.0000	0.00912
708.0000	0.00917
707.0000	0.00929
706.0000	0.0094
705.0000	0.00948
704.0000	0.00957
703.0000	0.0097
702.0000	0.0098
701.0000	0.00994
700.0000	0.01005
699.0000	0.01009
698.0000	0.01016
697.0000	0.01025
696.0000	0.0103
695.0000	0.01026
694.0000	0.01032
693.0000	0.01031
692.0000	0.01038
691.0000	0.0104
690.0000	0.01058
689.0000	0.01063
688.0000	0.01073
687.0000	0.01081
686.0000	0.01087
685.0000	0.01094
684.0000	0.011
683.0000	0.011
682.0000	0.01103
681.0000	0.01104
680.0000	0.01108
679.0000	0.011
678.0000	0.01109
677.0000	0.01109
676.0000	0.01114
675.0000	0.01113
674.0000	0.01115
673.0000	0.01127
672.0000	0.01125
671.0000	0.01144
670.0000	0.01154
669.0000	0.0116
668.0000	0.01159
667.0000	0.01162
666.0000	0.01166
665.0000	0.01162
664.0000	0.01156
663.0000	0.01156
662.0000	0.01165
661.0000	0.01173
660.0000	0.01172
659.0000	0.01172
658.0000	0.01187
657.0000	0.01197
656.0000	0.01195
655.0000	0.01204
654.0000	0.01214
653.0000	0.0122
652.0000	0.01222
651.0000	0.01231
650.0000	0.01241
649.0000	0.0125
648.0000	0.01259
647.0000	0.01272
646.0000	0.01285
645.0000	0.01288
644.0000	0.01301
643.0000	0.01314
642.0000	0.01324
641.0000	0.01328
640.0000	0.01337
639.0000	0.01362
638.0000	0.0137
637.0000	0.01393
636.0000	0.01409
635.0000	0.01439
634.0000	0.0146
633.0000	0.01479
632.0000	0.01502
631.0000	0.01528
630.0000	0.01556
629.0000	0.01588
628.0000	0.01621
627.0000	0.01656
626.0000	0.0169
625.0000	0.0172
624.0000	0.01762
623.0000	0.01804
622.0000	0.01846
621.0000	0.01886
620.0000	0.01936
619.0000	0.01993
618.0000	0.02046
617.0000	0.02099
616.0000	0.02164
615.0000	0.02237
614.0000	0.02304
613.0000	0.0238
612.0000	0.02451
611.0000	0.02532
610.0000	0.02607
609.0000	0.02687
608.0000	0.02773
607.0000	0.02862
606.0000	0.02965
605.0000	0.03059
604.0000	0.03171
603.0000	0.03282
602.0000	0.03401
601.0000	0.03527
600.0000	0.03653
599.0000	0.03782
598.0000	0.03923
597.0000	0.0406
596.0000	0.04203
595.0000	0.04351
594.0000	0.04507
593.0000	0.04671
592.0000	0.04852
591.0000	0.05034
590.0000	0.05218
589.0000	0.05417
588.0000	0.05618
587.0000	0.05825
586.0000	0.06037
585.0000	0.06255
584.0000	0.06472
583.0000	0.06703
582.0000	0.06928
581.0000	0.07173
580.0000	0.07421
579.0000	0.07678
578.0000	0.07936
577.0000	0.08196
576.0000	0.08459
575.0000	0.08735
574.0000	0.0901
573.0000	0.09287
572.0000	0.09571
571.0000	0.09864
570.0000	0.10167
569.0000	0.10469
568.0000	0.10763
567.0000	0.11069
566.0000	0.11377
565.0000	0.11687
564.0000	0.12001
563.0000	0.1232
562.0000	0.12639
561.0000	0.12963
560.0000	0.13288
559.0000	0.13599
558.0000	0.13926
557.0000	0.14245
556.0000	0.14555
555.0000	0.14872
554.0000	0.15193
553.0000	0.15509
552.0000	0.15821
551.0000	0.16136
550.0000	0.16453
549.0000	0.16764
548.0000	0.17069
547.0000	0.17368
546.0000	0.17666
545.0000	0.17944
544.0000	0.1822
543.0000	0.18486
542.0000	0.18744
541.0000	0.18994
540.0000	0.19234
539.0000	0.19464
538.0000	0.19691
537.0000	0.19899
536.0000	0.20102
535.0000	0.20288
534.0000	0.20462
533.0000	0.20621
532.0000	0.2076
531.0000	0.20889
530.0000	0.21003
529.0000	0.21103
528.0000	0.21195
527.0000	0.21271
526.0000	0.21324
525.0000	0.21362
524.0000	0.21388
523.0000	0.21389
522.0000	0.21383
521.0000	0.2135
520.0000	0.21264
519.0000	0.21218
518.0000	0.21167
517.0000	0.21106
516.0000	0.21002
515.0000	0.20887
514.0000	0.2075
513.0000	0.20603
512.0000	0.20437
511.0000	0.20255
510.0000	0.20061
509.0000	0.19854
508.0000	0.19636
507.0000	0.19403
506.0000	0.1916
505.0000	0.18911
504.0000	0.18646
503.0000	0.18363
502.0000	0.18074
501.0000	0.17769
500.0000	0.17463
499.0000	0.17144
498.0000	0.16826
497.0000	0.16485
496.0000	0.16152
495.0000	0.15805
494.0000	0.15463
493.0000	0.15102
492.0000	0.14737
491.0000	0.14372
490.0000	0.14014
489.0000	0.13648
488.0000	0.13282
487.0000	0.12915
486.0000	0.1254
485.0000	0.1218
484.0000	0.1181
483.0000	0.11457
482.0000	0.11103
481.0000	0.10743
480.0000	0.10393
479.0000	0.10042
478.0000	0.09699
477.0000	0.09357
476.0000	0.09018
475.0000	0.08693
474.0000	0.08367
473.0000	0.08052
472.0000	0.07748
471.0000	0.07444
470.0000	0.07145
469.0000	0.06859
468.0000	0.06581
467.0000	0.06311
466.0000	0.06045
465.0000	0.05783
464.0000	0.05538
463.0000	0.05292
462.0000	0.05061
461.0000	0.04829
460.0000	0.04604
459.0000	0.04398
458.0000	0.04192
457.0000	0.03994
456.0000	0.03806
455.0000	0.03615
454.0000	0.03446
453.0000	0.0328
452.0000	0.03119
451.0000	0.02967
450.0000	0.02806
449.0000	0.02656
448.0000	0.0252
447.0000	0.02384
446.0000	0.02264
445.0000	0.02138
444.0000	0.02034
443.0000	0.01926
442.0000	0.01825
441.0000	0.01732
440.0000	0.01628
439.0000	0.01531
438.0000	0.01437
437.0000	0.01356
436.0000	0.01284
435.0000	0.0121
434.0000	0.01147
433.0000	0.01084
432.0000	0.01037
431.0000	0.0099
430.0000	0.00934
429.0000	0.00881
428.0000	0.00838
427.0000	0.00793
426.0000	0.00747
425.0000	0.00704
424.0000	0.00675
423.0000	0.00637
422.0000	0.00611
421.0000	0.00583
420.0000	0.00528
419.0000	0.0052
418.0000	0.00503
417.0000	0.00493
416.0000	0.00464
415.0000	0.00451
414.0000	0.00428
413.0000	0.00411
412.0000	0.00393
411.0000	0.00373
410.0000	0.00373
409.0000	0.00367
408.0000	0.00356
407.0000	0.00345
406.0000	0.0034
405.0000	0.00333
404.0000	0.00324
403.0000	0.00317
402.0000	0.00308
401.0000	0.0032
400.0000	0.0032
399.0000	0.00321
398.0000	0.00319
397.0000	0.0032
396.0000	0.00307
395.0000	0.00308
394.0000	0.00305
393.0000	0.00309
392.0000	0.00302
391.0000	0.003
390.0000	0.0031
389.0000	0.00313
388.0000	0.0031
387.0000	0.00308
386.0000	0.00295
385.0000	0.00306
384.0000	0.00307
383.0000	0.00303
382.0000	0.00301
381.0000	0.00314
380.0000	0.00324
379.0000	0.00322
378.0000	0.00321
377.0000	0.00321
376.0000	0.00322
375.0000	0.00324
374.0000	0.00328
373.0000	0.00333
372.0000	0.00337
371.0000	0.00354
370.0000	0.00384
369.0000	0.0038
368.0000	0.00411
367.0000	0.00406
366.0000	0.00408
365.0000	0.00415
364.0000	0.00414
363.0000	0.00416
362.0000	0.00428
361.0000	0.00413
360.0000	0.00416
359.0000	0.0041
358.0000	0.00418
357.0000	0.00458
356.0000	0.0045
355.0000	0.00459
354.0000	0.00473
353.0000	0.00479
352.0000	0.00498
351.0000	0.00497
350.0000	0.00522
349.0000	0.00566
348.0000	0.00577
347.0000	0.00601
346.0000	0.00614
345.0000	0.00627
344.0000	0.00635
343.0000	0.00653
342.0000	0.00658
341.0000	0.00672
340.0000	0.00706
339.0000	0.00701
338.0000	0.00716
337.0000	0.00744
336.0000	0.0077
335.0000	0.00807
334.0000	0.0085
333.0000	0.00893
332.0000	0.0092
331.0000	0.00958
330.0000	0.00981
329.0000	0.01013
328.0000	0.01057
327.0000	0.0109
326.0000	0.01115
325.0000	0.01154
324.0000	0.01196
323.0000	0.01225
322.0000	0.01265
321.0000	0.01306
320.0000	0.01354
319.0000	0.01408
318.0000	0.01439
317.0000	0.01489
316.0000	0.01529
315.0000	0.01576
314.0000	0.01632
313.0000	0.01664
312.0000	0.01715
311.0000	0.01784
310.0000	0.01835
309.0000	0.01896
308.0000	0.01961
307.0000	0.02023
306.0000	0.02097
305.0000	0.02161
304.0000	0.02228
303.0000	0.02291
302.0000	0.02357
301.0000	0.02441
300.0000	0.02518
299.0000	0.02603
298.0000	0.02699
297.0000	0.02786
296.0000	0.02882
295.0000	0.02961
294.0000	0.03046
293.0000	0.03144
292.0000	0.03243
291.0000	0.03357
290.0000	0.03464
289.0000	0.03589
288.0000	0.03718
287.0000	0.03869
286.0000	0.0403
285.0000	0.04183
284.0000	0.04361
283.0000	0.04547
282.0000	0.04755
281.0000	0.05007
280.0000	0.05303
279.0000	0.05666
278.0000	0.06074
277.0000	0.06551
276.0000	0.07108
275.0000	0.0774
274.0000	0.08361
273.0000	0.08972
272.0000	0.09651
271.0000	0.10414
270.0000	0.11214
269.0000	0.12079
268.0000	0.13051
267.0000	0.14155
266.0000	0.15309
265.0000	0.16485
264.0000	0.1769
263.0000	0.19009
262.0000	0.20537
261.0000	0.22211
260.0000	0.24023
259.0000	0.25952
258.0000	0.28045
257.0000	0.30318
256.0000	0.32729
255.0000	0.35213
254.0000	0.3785
253.0000	0.40645
252.0000	0.43554
251.0000	0.46711
250.0000	0.49912
