TITLE	
DATA TYPE	
ORIGIN	JASCO
OWNER	
DATE	23/02/09
TIME	12:44:17
SPECTROMETER/DATA SYSTEM	JASCO Corp., V-560, Rev. 1.00
RESOLUTION	
DELTAX	-1
XUNITS	NANOMETERS
YUNITS	ABSORBANCE
FIRSTX	900.0000
LASTX	250.0000
NPOINTS	651
FIRSTY	0.00110
MAXY	5.05331
MINY	-0.00114
XYDATA
900.0000	0.0011
899.0000	0.0013
898.0000	8.3E-04
897.0000	0.00133
896.0000	9.8E-04
895.0000	0.00126
894.0000	2.99999E-05
893.0000	-4.3E-04
892.0000	7.4E-04
891.0000	-9.99999E-05
890.0000	-0.00114
889.0000	1.2E-04
888.0000	0.00148
887.0000	0.00249
886.0000	0.00221
885.0000	0.00328
884.0000	0.00282
883.0000	0.00276
882.0000	0.00301
881.0000	0.00161
880.0000	0.00114
879.0000	0.00145
878.0000	0.00198
877.0000	0.00233
876.0000	0.00205
875.0000	0.00226
874.0000	0.00198
873.0000	0.00216
872.0000	0.00185
871.0000	0.00129
870.0000	0.00157
869.0000	5.8E-04
868.0000	7.4E-04
867.0000	8.2E-04
866.0000	9.4E-04
865.0000	0.00112
864.0000	6.5E-04
863.0000	8.6E-04
862.0000	5.9E-04
861.0000	4.4E-04
860.0000	4.7E-04
859.0000	4.8E-04
858.0000	3.5E-04
857.0000	7.8E-04
856.0000	5.6E-04
855.0000	5.4E-04
854.0000	8.2E-04
853.0000	4.2E-04
852.0000	2.8E-04
851.0000	1.00004E-05
850.0000	2.2E-04
849.0000	4.4E-04
848.0000	4.6E-04
847.0000	5.2E-04
846.0000	8.1E-04
845.0000	9.7E-04
844.0000	5.7E-04
843.0000	6E-04
842.0000	5.5E-04
841.0000	6.2E-04
840.0000	5.9E-04
839.0000	7.9E-04
838.0000	9.6E-04
837.0000	9.59999E-04
836.0000	0.00101
835.0000	9.9E-04
834.0000	0.00107
833.0000	7.20001E-04
832.0000	7.09999E-04
831.0000	6.70001E-04
830.0000	7E-04
829.0000	9.6E-04
828.0000	8.6E-04
827.0000	0.00107
826.0000	0.00123
825.0000	0.00126
824.0000	0.00121
823.0000	0.00111
822.0000	0.00125
821.0000	1E-03
820.0000	0.00106
819.0000	9.30001E-04
818.0000	0.00111
817.0000	0.00122
816.0000	0.00113
815.0000	0.00122
814.0000	0.00136
813.0000	0.00141
812.0000	0.00129
811.0000	0.0013
810.0000	0.00143
809.0000	0.00163
808.0000	0.00153
807.0000	0.00151
806.0000	0.00174
805.0000	0.00186
804.0000	0.00168
803.0000	0.00164
802.0000	0.00159
801.0000	0.00166
800.0000	0.0017
799.0000	0.00164
798.0000	0.00179
797.0000	0.00185
796.0000	0.00189
795.0000	0.00193
794.0000	0.00201
793.0000	0.00194
792.0000	0.00201
791.0000	0.00198
790.0000	0.00194
789.0000	0.00211
788.0000	0.00206
787.0000	0.00207
786.0000	0.00207
785.0000	0.00206
784.0000	0.00212
783.0000	0.00206
782.0000	0.0022
781.0000	0.00218
780.0000	0.0022
779.0000	0.00229
778.0000	0.00235
777.0000	0.00217
776.0000	0.00212
775.0000	0.00204
774.0000	0.002
773.0000	0.00207
772.0000	0.00203
771.0000	0.00212
770.0000	0.00226
769.0000	0.00228
768.0000	0.00231
767.0000	0.00217
766.0000	0.00224
765.0000	0.00221
764.0000	0.00203
763.0000	0.00204
762.0000	0.00216
761.0000	0.00226
760.0000	0.00245
759.0000	0.00239
758.0000	0.00236
757.0000	0.00239
756.0000	0.00247
755.0000	0.00252
754.0000	0.00259
753.0000	0.00265
752.0000	0.00278
751.0000	0.00305
750.0000	0.00342
749.0000	0.00369
748.0000	0.00389
747.0000	0.00394
746.0000	0.00412
745.0000	0.00435
744.0000	0.00439
743.0000	0.00439
742.0000	0.0045
741.0000	0.00467
740.0000	0.00486
739.0000	0.00479
738.0000	0.00474
737.0000	0.0047
736.0000	0.00471
735.0000	0.00469
734.0000	0.00483
733.0000	0.00492
732.0000	0.00523
731.0000	0.00538
730.0000	0.00559
729.0000	0.0057
728.0000	0.00577
727.0000	0.00587
726.0000	0.00601
725.0000	0.00599
724.0000	0.00615
723.0000	0.00624
722.0000	0.00648
721.0000	0.00656
720.0000	0.0066
719.0000	0.00656
718.0000	0.00657
717.0000	0.0066
716.0000	0.00657
715.0000	0.00664
714.0000	0.00669
713.0000	0.00683
712.0000	0.00695
711.0000	0.00707
710.0000	0.00718
709.0000	0.00724
708.0000	0.00737
707.0000	0.00747
706.0000	0.00762
705.0000	0.00765
704.0000	0.00778
703.0000	0.00782
702.0000	0.00801
701.0000	0.0081
700.0000	0.00816
699.0000	0.0082
698.0000	0.00826
697.0000	0.00832
696.0000	0.00833
695.0000	0.00833
694.0000	0.00835
693.0000	0.00835
692.0000	0.0084
691.0000	0.00847
690.0000	0.00873
689.0000	0.00883
688.0000	0.00895
687.0000	0.00899
686.0000	0.00917
685.0000	0.00929
684.0000	0.00933
683.0000	0.00936
682.0000	0.00943
681.0000	0.00945
680.0000	0.00956
679.0000	0.00962
678.0000	0.00975
677.0000	0.00981
676.0000	0.00978
675.0000	0.00992
674.0000	0.00997
673.0000	0.01006
672.0000	0.01005
671.0000	0.01019
670.0000	0.01031
669.0000	0.01036
668.0000	0.0104
667.0000	0.01051
666.0000	0.01061
665.0000	0.01056
664.0000	0.01056
663.0000	0.01068
662.0000	0.01078
661.0000	0.01082
660.0000	0.01083
659.0000	0.01093
658.0000	0.01111
657.0000	0.01114
656.0000	0.01116
655.0000	0.01126
654.0000	0.0114
653.0000	0.01142
652.0000	0.01148
651.0000	0.01156
650.0000	0.01166
649.0000	0.01176
648.0000	0.01189
647.0000	0.01203
646.0000	0.01214
645.0000	0.0122
644.0000	0.01232
643.0000	0.01246
642.0000	0.01256
641.0000	0.01262
640.0000	0.01271
639.0000	0.01293
638.0000	0.01316
637.0000	0.01335
636.0000	0.01351
635.0000	0.01377
634.0000	0.01386
633.0000	0.01405
632.0000	0.01417
631.0000	0.01435
630.0000	0.01459
629.0000	0.01479
628.0000	0.01504
627.0000	0.01526
626.0000	0.0155
625.0000	0.0157
624.0000	0.01603
623.0000	0.0163
622.0000	0.01657
621.0000	0.01691
620.0000	0.01718
619.0000	0.01756
618.0000	0.01789
617.0000	0.01822
616.0000	0.01868
615.0000	0.0192
614.0000	0.01971
613.0000	0.0202
612.0000	0.02073
611.0000	0.02133
610.0000	0.02188
609.0000	0.02236
608.0000	0.02298
607.0000	0.02366
606.0000	0.02438
605.0000	0.025
604.0000	0.02573
603.0000	0.02655
602.0000	0.02741
601.0000	0.02835
600.0000	0.02923
599.0000	0.03015
598.0000	0.03115
597.0000	0.03212
596.0000	0.03316
595.0000	0.03418
594.0000	0.03533
593.0000	0.0365
592.0000	0.03778
591.0000	0.03915
590.0000	0.04055
589.0000	0.04197
588.0000	0.04351
587.0000	0.04504
586.0000	0.04659
585.0000	0.04818
584.0000	0.0499
583.0000	0.05157
582.0000	0.05329
581.0000	0.05521
580.0000	0.05712
579.0000	0.05917
578.0000	0.06116
577.0000	0.06322
576.0000	0.06532
575.0000	0.06755
574.0000	0.06981
573.0000	0.07204
572.0000	0.07442
571.0000	0.07685
570.0000	0.07941
569.0000	0.08198
568.0000	0.08447
567.0000	0.08711
566.0000	0.08982
565.0000	0.09254
564.0000	0.09525
563.0000	0.09808
562.0000	0.10096
561.0000	0.10391
560.0000	0.10691
559.0000	0.10986
558.0000	0.11303
557.0000	0.11614
556.0000	0.11926
555.0000	0.1224
554.0000	0.12565
553.0000	0.12886
552.0000	0.13216
551.0000	0.13548
550.0000	0.13888
549.0000	0.14229
548.0000	0.14571
547.0000	0.14909
546.0000	0.15259
545.0000	0.15597
544.0000	0.15942
543.0000	0.16283
542.0000	0.16623
541.0000	0.16961
540.0000	0.173
539.0000	0.17632
538.0000	0.1796
537.0000	0.18289
536.0000	0.1862
535.0000	0.18941
534.0000	0.19257
533.0000	0.19557
532.0000	0.19856
531.0000	0.20141
530.0000	0.20429
529.0000	0.20703
528.0000	0.20982
527.0000	0.21249
526.0000	0.21492
525.0000	0.21734
524.0000	0.21968
523.0000	0.22186
522.0000	0.22379
521.0000	0.22572
520.0000	0.22974
519.0000	0.23072
518.0000	0.2317
517.0000	0.23246
516.0000	0.23355
515.0000	0.23477
514.0000	0.23583
513.0000	0.2367
512.0000	0.23739
511.0000	0.23791
510.0000	0.23834
509.0000	0.23875
508.0000	0.23886
507.0000	0.23886
506.0000	0.23877
505.0000	0.23854
504.0000	0.23817
503.0000	0.23749
502.0000	0.23665
501.0000	0.23569
500.0000	0.23462
499.0000	0.23338
498.0000	0.232
497.0000	0.23042
496.0000	0.22879
495.0000	0.22695
494.0000	0.22498
493.0000	0.22282
492.0000	0.22052
491.0000	0.21807
490.0000	0.21557
489.0000	0.21295
488.0000	0.2102
487.0000	0.20727
486.0000	0.20426
485.0000	0.20112
484.0000	0.19793
483.0000	0.1947
482.0000	0.19133
481.0000	0.18783
480.0000	0.18431
479.0000	0.1807
478.0000	0.17697
477.0000	0.17316
476.0000	0.16932
475.0000	0.1655
474.0000	0.16174
473.0000	0.15783
472.0000	0.15403
471.0000	0.15016
470.0000	0.14629
469.0000	0.14241
468.0000	0.13857
467.0000	0.13467
466.0000	0.13084
465.0000	0.12698
464.0000	0.12323
463.0000	0.11943
462.0000	0.11563
461.0000	0.11193
460.0000	0.10821
459.0000	0.10462
458.0000	0.10099
457.0000	0.09739
456.0000	0.09388
455.0000	0.09052
454.0000	0.08719
453.0000	0.08389
452.0000	0.08065
451.0000	0.07754
450.0000	0.07444
449.0000	0.07137
448.0000	0.06839
447.0000	0.06553
446.0000	0.06282
445.0000	0.06009
444.0000	0.05758
443.0000	0.05515
442.0000	0.05272
441.0000	0.05049
440.0000	0.04817
439.0000	0.04605
438.0000	0.04396
437.0000	0.04195
436.0000	0.04016
435.0000	0.03844
434.0000	0.03689
433.0000	0.03537
432.0000	0.03403
431.0000	0.03275
430.0000	0.03146
429.0000	0.03026
428.0000	0.02925
427.0000	0.02827
426.0000	0.02743
425.0000	0.02675
424.0000	0.02617
423.0000	0.02563
422.0000	0.02528
421.0000	0.02494
420.0000	0.02439
419.0000	0.02446
418.0000	0.02451
417.0000	0.02472
416.0000	0.02496
415.0000	0.02534
414.0000	0.0259
413.0000	0.02652
412.0000	0.02732
411.0000	0.02817
410.0000	0.02924
409.0000	0.03049
408.0000	0.03183
407.0000	0.03325
406.0000	0.03481
405.0000	0.0366
404.0000	0.03868
403.0000	0.04073
402.0000	0.04318
401.0000	0.04593
400.0000	0.04894
399.0000	0.05214
398.0000	0.05557
397.0000	0.05945
396.0000	0.0635
395.0000	0.06808
394.0000	0.07285
393.0000	0.07794
392.0000	0.08338
391.0000	0.08929
390.0000	0.0957
389.0000	0.1025
388.0000	0.10972
387.0000	0.11749
386.0000	0.12572
385.0000	0.13476
384.0000	0.14404
383.0000	0.15393
382.0000	0.16455
381.0000	0.17569
380.0000	0.1876
379.0000	0.19986
378.0000	0.21292
377.0000	0.22679
376.0000	0.24128
375.0000	0.2565
374.0000	0.27246
373.0000	0.28909
372.0000	0.30651
371.0000	0.32457
370.0000	0.36732
369.0000	0.38016
368.0000	0.39317
367.0000	0.40629
366.0000	0.42603
365.0000	0.44825
364.0000	0.47095
363.0000	0.49425
362.0000	0.51824
361.0000	0.54264
360.0000	0.56777
359.0000	0.59338
358.0000	0.61947
357.0000	0.64601
356.0000	0.67281
355.0000	0.69974
354.0000	0.72681
353.0000	0.75381
352.0000	0.78085
351.0000	0.80777
350.0000	0.83475
349.0000	0.86072
348.0000	0.88695
347.0000	0.91216
346.0000	0.93688
345.0000	0.96109
344.0000	0.98353
343.0000	1.00521
342.0000	1.0263
341.0000	1.04563
340.0000	1.0851
339.0000	1.0941
338.0000	1.10163
337.0000	1.10804
336.0000	1.11863
335.0000	1.12847
334.0000	1.1366
333.0000	1.14264
332.0000	1.14679
331.0000	1.14907
330.0000	1.14936
329.0000	1.14761
328.0000	1.14402
327.0000	1.13852
326.0000	1.13106
325.0000	1.12208
324.0000	1.11149
323.0000	1.09918
322.0000	1.08544
321.0000	1.07057
320.0000	1.0544
319.0000	1.03719
318.0000	1.01875
317.0000	0.99936
316.0000	0.97916
315.0000	0.95816
314.0000	0.93706
313.0000	0.91513
312.0000	0.89291
311.0000	0.87065
310.0000	0.84842
309.0000	0.8259
308.0000	0.80323
307.0000	0.78018
306.0000	0.75765
305.0000	0.73489
304.0000	0.71203
303.0000	0.68927
302.0000	0.66683
301.0000	0.64505
300.0000	0.62381
299.0000	0.60309
298.0000	0.58323
297.0000	0.56461
296.0000	0.54737
295.0000	0.53231
294.0000	0.52049
293.0000	0.51403
292.0000	0.51608
291.0000	0.53078
290.0000	0.56306
289.0000	0.61956
288.0000	0.70585
287.0000	0.82466
286.0000	0.98113
285.0000	1.18905
284.0000	1.47462
283.0000	1.88208
282.0000	2.46439
281.0000	3.20003
280.0000	3.80383
279.0000	4.10958
278.0000	4.30382
277.0000	4.39198
276.0000	4.41044
275.0000	4.40408
274.0000	4.42376
273.0000	4.45071
272.0000	4.45074
271.0000	4.45084
270.0000	4.4438
269.0000	4.47968
268.0000	4.51113
267.0000	4.53557
266.0000	4.59968
265.0000	4.76488
264.0000	5.05331
263.0000	4.99275
262.0000	4.66655
261.0000	4.66631
260.0000	4.68998
259.0000	4.74201
258.0000	4.78427
257.0000	4.7171
256.0000	4.59456
255.0000	4.64585
254.0000	4.64564
253.0000	4.65683
252.0000	4.64534
251.0000	4.48385
250.0000	4.54253
